File: NMC532 vs graphite/hc_gr.txt
volts	mAhg
1.12276	2.837E-05
1.0724	0.404003
1.02205	0.986972
0.971695	1.6671
0.92134	2.43423
0.870985	3.25902
0.8206302	4.1177
0.770123	4.99501
0.719768	5.94808
0.669413	7.06992
0.619059	8.36351
0.572976	9.72285
0.53254	11.0822
0.496986	12.4415
0.465095	13.8009
0.436408	15.1602
0.4103151	16.5196
0.386053	17.8789
0.364233	19.2383
0.343938	20.5976
0.324712	21.957
0.307164	23.3163
0.29099	24.6756
0.275578	26.035
0.261387	27.3943
0.2481117	28.7537
0.235752	30.113
0.224918	31.4724
0.216068	32.8317
0.210117	34.1911
0.208286	35.5504
0.20737	36.9097
0.207218	38.2691
0.20676	39.6284
0.206607	40.9878
0.206149	42.3471
0.205539	43.7065
0.204776	45.0658
0.204166	46.4252
0.20325	47.7845
0.202029	49.1438
0.200656	50.5032
0.199283	51.8625
0.197299	53.2219
0.195315	54.5812
0.192874	55.9406
0.19028	57.2999
0.187381	58.6593
0.184329	60.0186
0.181125	61.3779
0.1779202	62.7373
0.1747158	64.0966
0.171664	65.456
0.168612	66.8153
0.165713	68.1747
0.162814	69.534
0.159609	70.8934
0.1561	72.2527
0.152743	73.612
0.150149	74.9714
0.148318	76.3307
0.146334	77.6901
0.143893	79.0494
0.141451	80.4088
0.138399	81.7681
0.135195	83.1275
0.131991	84.4868
0.128939	85.8461
0.127565	87.2055
0.126802	88.5648
0.126192	89.9242
0.125429	91.2835
0.1248188	92.6429
0.124361	94.0022
0.1232929	95.3616
0.12253	96.7209
0.121767	98.0802
0.121309	99.4396
0.120699	100.799
0.120241	102.158
0.119631	103.518
0.119326	104.877
0.118868	106.236
0.118868	107.596
0.1185626	108.955
0.1185626	110.314
0.118105	111.674
0.118105	113.033
0.117952	114.392
0.117952	115.752
0.1178	117.111
0.117647	118.47
0.117647	119.83
0.117494	121.189
0.117342	122.548
0.117342	123.908
0.117189	125.267
0.1170367	126.626
0.1170367	127.986
0.1170367	129.345
0.116732	130.705
0.116884	132.064
0.116732	133.423
0.116579	134.783
0.116426	136.142
0.116274	137.501
0.116426	138.861
0.116274	140.22
0.116121	141.579
0.115816	142.939
0.115816	144.298
0.115663	145.657
0.115663	147.017
0.1155108	148.376
0.115358	149.735
0.115358	151.095
0.115206	152.454
0.1149	153.813
0.1149	155.173
0.114748	156.532
0.114595	157.891
0.114595	159.251
0.11429	160.61
0.114137	161.969
0.1138323	163.329
0.113527	164.688
0.113222	166.047
0.112917	167.407
0.112459	168.766
0.112154	170.126
0.111696	171.485
0.111238	172.844
0.110475	174.204
0.109865	175.563
0.108797	176.922
0.107881	178.282
0.106813	179.641
0.105135	181
0.103609	182.36
0.10132	183.719
0.09857328	185.078
0.09552148	186.438
0.09216449	187.797
0.0889601	189.156
0.08651865	190.516
0.08484016	191.875
0.08361944	193.234
0.08300908	194.594
0.08285649	195.953
0.08285649	197.312
0.08316167	198.672
0.08316167	200.031
0.08331426	201.39
0.08331426	202.75
0.08331426	204.109
0.08346685	205.468
0.08346685	206.828
0.08346685	208.187
0.08346685	209.546
0.08346685	210.906
0.08331426	212.265
0.08331426	213.625
0.08331426	214.984
0.08346685	216.343
0.08346685	217.703
0.08331426	219.062
0.08316167	220.421
0.08331426	221.781
0.08331426	223.14
0.08331426	224.499
0.08346685	225.859
0.08316167	227.218
0.08331426	228.577
0.08316167	229.937
0.08331426	231.296
0.08316167	232.655
0.08316167	234.015
0.08316167	235.374
0.08300908	236.733
0.08316167	238.093
0.08316167	239.452
0.08300908	240.811
0.08300908	242.171
0.08300908	243.53
0.08300908	244.889
0.08300908	246.249
0.0827039	247.608
0.08285649	248.967
0.08285649	250.327
0.08285649	251.686
0.08285649	253.046
0.08285649	254.405
0.08300908	255.764
0.08285649	257.124
0.08285649	258.483
0.0827039	259.842
0.0827039	261.202
0.0827039	262.561
0.0827039	263.92
0.0827039	265.28
0.0827039	266.639
0.08255131	267.998
0.08255131	269.358
0.08255131	270.717
0.0827039	272.076
0.08255131	273.436
0.08255131	274.795
0.08255131	276.154
0.08255131	277.514
0.08255131	278.873
0.08239872	280.232
0.08255131	281.592
0.08224613	282.951
0.08239872	284.31
0.08239872	285.67
0.08224613	287.029
0.08224613	288.388
0.08209354	289.748
0.08209354	291.107
0.08209354	292.467
0.08194095	293.826
0.08209354	295.185
0.08194095	296.545
0.08194095	297.904
0.08194095	299.263
0.08178836	300.623
0.08194095	301.982
0.08148318	303.341
0.08163577	304.701
0.08148318	306.06
0.081178	307.419
0.081178	308.779
0.08087282	310.138
0.08041505	311.497
0.08026246	312.857
0.08026246	314.216
0.07980468	315.575
0.07965209	316.935
0.07919432	318.294
0.07873655	319.653
0.07843137	321.013
0.0779736	322.372
0.07690547	323.731
0.0764477	325.091
0.07553216	326.45
0.07446403	327.809
0.07324331	329.169
0.07202258	330.528
0.07064927	331.887
0.0686656	333.247
0.06698711	334.606
0.06500343	335.966
0.06256199	337.325
0.05996796	338.684
0.05706874	340.044
0.05386435	341.403
0.05050736	342.762
0.0468452	344.122
0.04272526	345.481
0.03830014	346.84
0.03356985	348.2
0.02899214	349.559
0.02426184	350.918
0.01922637	352.278
0.01464866	353.637
0.01022354	354.996
0.00564584	356.356
0.00167849	357.715
0	358.191