File: NMC532 vs graphite/hc_nmc.txt
volts	mAhg
3.01122	1.8797E-05
3.14092	0.005090226
3.26802	0.01518797
3.39467	0.0342594
3.52041	0.0767256
3.60861	0.561
3.62158	1.26585
3.62829	1.97071
3.63317	2.67557
3.63714	3.38042
3.6405	4.08528
3.64355	4.79014
3.64645	5.49499
3.64889	6.19985
3.65118	6.9047
3.65347	7.60956
3.6556	8.31441
3.65759	9.01927
3.65942	9.72412
3.6614	10.429
3.66323	11.1338
3.66506	11.8387
3.66674	12.5435
3.66842	13.2484
3.6701	13.9533
3.67163	14.6581
3.6733	15.363
3.67468	16.0678
3.67636	16.7727
3.67773	17.4775
3.67926	18.1824
3.68078	18.8873
3.68215	19.5921
3.68368	20.297
3.6849	21.0018
3.68627	21.7067
3.6875	22.4115
3.68902	23.1164
3.69055	23.8212
3.69177	24.5261
3.69329	25.231
3.69436	25.9358
3.69558	26.6407
3.69696	27.3455
3.69833	28.0504
3.69955	28.7552
3.70092	29.4601
3.70214	30.1649
3.70336	30.8698
3.70474	31.5747
3.70596	32.2795
3.70718	32.9844
3.7084	33.6892
3.70962	34.3941
3.71069	35.0989
3.71206	35.8038
3.71313	36.5086
3.71435	37.2135
3.71572	37.9184
3.71664	38.6232
3.71771	39.3281
3.71893	40.0329
3.72	40.7378
3.72122	41.4426
3.72244	42.1475
3.72335	42.8523
3.72442	43.5572
3.72564	44.2621
3.72671	44.9669
3.72763	45.6718
3.728542	46.3766
3.72976	47.0815
3.73083	47.7863
3.7319	48.4912
3.73297	49.1961
3.73388	49.9009
3.73495	50.6058
3.73617	51.3106
3.73709	52.0155
3.73816	52.7203
3.73907	53.4252
3.74014	54.13
3.74105	54.8349
3.74212	55.5398
3.74319	56.2446
3.74411	56.9495
3.74517	57.6543
3.74609	58.3592
3.74731	59.064
3.74823	59.7689
3.74899	60.4737
3.7499	61.1786
3.75113	61.8835
3.75219	62.5883
3.75311	63.2932
3.75418	63.998
3.75509	64.7029
3.75586	65.4077
3.75723	66.1126
3.7583	66.8174
3.75921	67.5223
3.76028	68.2272
3.76135	68.932
3.76242	69.6369
3.76349	70.3417
3.7644	71.0466
3.76547	71.7514
3.76654	72.4563
3.76776	73.1612
3.76883	73.866
3.77005	74.5709
3.77096	75.2757
3.77203	75.9806
3.77325	76.6854
3.77447	77.3903
3.77554	78.0951
3.77691	78.8
3.77798	79.5049
3.7792	80.2097
3.78058	80.9146
3.78164	81.6194
3.78317	82.3243
3.78424	83.0291
3.78576	83.734
3.78714	84.4388
3.78851	85.1437
3.78973	85.8486
3.79126	86.5534
3.79278	87.2583
3.79431	87.9631
3.79583	88.668
3.79736	89.3728
3.79904	90.0777
3.80072	90.7825
3.80224	91.4874
3.80377	92.1923
3.80575	92.8971
3.80743	93.602
3.80926	94.3068
3.81109	95.0117
3.81308	95.7165
3.81476	96.4214
3.81704	97.1262
3.81918	97.8311
3.82116	98.536
3.8233	99.2408
3.82559	99.9457
3.82788	100.651
3.83001	101.355
3.8323	102.06
3.83505	102.765
3.83734	103.47
3.83978	104.175
3.84268	104.88
3.84512	105.585
3.84787	106.289
3.85046	106.994
3.85367	107.699
3.85626	108.404
3.85946	109.109
3.86236	109.814
3.86496	110.519
3.86816	111.223
3.87152	111.928
3.87472	112.633
3.87793	113.338
3.88128	114.043
3.88449	114.748
3.888	115.4525
3.89136	116.157
3.89487	116.862
3.89853	117.567
3.90204	118.272
3.9057	118.977
3.90921	119.682
3.91302	120.386
3.91669	121.091
3.92065	121.796
3.92432	122.501
3.92828	123.206
3.9321	123.911
3.93591	124.616
3.94003	125.32
3.944	126.025
3.94797	126.73
3.95193	127.435
3.95621	128.14
3.96017	128.845
3.96414	129.55
3.96841	130.254
3.97238	130.959
3.97635	131.664
3.98093	132.369
3.98489	133.074
3.98901	133.779
3.99329	134.484
3.99741	135.188
4.00168	135.893
4.00626	136.598
4.01038	137.303
4.01465	138.008
4.01892	138.713
4.02289	139.418
4.02731	140.122
4.03189	140.827
4.03616	141.532
4.04028	142.237
4.04471	142.942
4.04913	143.647
4.05371	144.352
4.05798	145.056
4.06226	145.761
4.06683	146.466
4.07126	147.171
4.07614	147.876
4.08026	148.581
4.08484	149.286
4.08957	149.99
4.0943	150.695
4.09857	151.4
4.10315	152.105
4.10788	152.81
4.11246	153.515
4.11704	154.22
4.12192	154.924
4.12665	155.629
4.131075	156.334
4.13581	157.039
4.14069	157.744
4.14527	158.449
4.15	159.154
4.15503	159.858
4.15961	160.563
4.16434	161.268
4.16922	161.973
4.17395	162.678
4.17899	163.383
4.18372	164.088
4.18845	164.792
4.19333	165.497
4.19821	166.202
4.20294	166.907
4.20768	167.612
4.21271	168.317
4.21729	169.022
4.22217	169.726
4.22705	170.431
4.23178	171.136
4.23682	171.841
4.2417	172.546
4.24643	173.251
4.25132	173.956
4.2562	174.66
4.26078	175.365
4.26596	176.07
4.27085	176.775
4.27573	177.48
4.28061	178.185
4.2855	178.89
4.29038	179.594
4.29526	180.299
4.29999	181.004
4.30503	181.709
4.31006	182.414
4.31464	183.119
4.31983	183.824
4.32486	184.528
4.3299	185.233
4.33478	185.938
4.33997	186.643
4.34516	187.348
4.35004	188.053
4.35554	188.758
4.36088	189.462
4.36591	190.167
4.3711	190.872
4.37659	191.577
4.38193	192.282
4.38727	192.987
4.39277	193.6915
4.39826	194.396
4.4036	195.101
4.4094	195.806
4.41489	196.511
4.42069	197.216
4.42634	197.921
4.43198	198.625
4.43778	199.33
4.44343	200.035
4.44938	200.74
4.45502	201.445
4.46082	202.15
4.46647	202.855
4.47227	203.559
4.47807	204.264
4.48386	204.969
4.48981	205.674
4.49546	206.379
4.50004	206.891